# Energy (eV)     Normalized_intensity
1.200000	0.000000
1.203750	0.000000
1.207500	0.000000
1.211250	0.000000
1.215000	0.000000
1.218750	0.000000
1.222500	0.000000
1.226250	0.000000
1.230000	0.000000
1.233750	0.000000
1.237500	0.000000
1.241250	0.000000
1.245000	0.000000
1.248750	0.000000
1.252500	0.000000
1.256250	0.000000
1.260000	0.000000
1.263750	0.000000
1.267500	0.000000
1.271250	0.000000
1.275000	0.000000
1.278750	0.000000
1.282500	0.000000
1.286250	0.000000
1.290000	0.000000
1.293750	0.000000
1.297500	0.000000
1.301250	0.000000
1.305000	0.000000
1.308750	0.000000
1.312500	0.000000
1.316250	0.000000
1.320000	0.000000
1.323750	0.000000
1.327500	0.000000
1.331250	0.000000
1.335000	0.000000
1.338750	0.000000
1.342500	0.000000
1.346250	0.000000
1.350000	0.000000
1.353750	0.000000
1.357500	0.000000
1.361250	0.000000
1.365000	0.000000
1.368750	0.000000
1.372500	0.000000
1.376250	0.000000
1.380000	0.000000
1.383750	0.000000
1.387500	0.000000
1.391250	0.000000
1.395000	0.000000
1.398750	0.000000
1.402500	0.000000
1.406250	0.000000
1.410000	0.000000
1.413750	0.000000
1.417500	0.000000
1.421250	0.000000
1.425000	0.000000
1.428750	0.000000
1.432500	0.000000
1.436250	0.000000
1.440000	0.000000
1.443750	0.000000
1.447500	0.000000
1.451250	0.000000
1.455000	0.000000
1.458750	0.000000
1.462500	0.000000
1.466250	0.000000
1.470000	0.000000
1.473750	0.000000
1.477500	0.000000
1.481250	0.000000
1.485000	0.000000
1.488750	0.000000
1.492500	0.000000
1.496250	0.000000
1.500000	0.000000
1.503750	0.000000
1.507500	0.000000
1.511250	0.000000
1.515000	0.000000
1.518750	0.000000
1.522500	0.000000
1.526250	0.000000
1.530000	0.000001
1.533750	0.000001
1.537500	0.000001
1.541250	0.000001
1.545000	0.000001
1.548750	0.000002
1.552500	0.000002
1.556250	0.000002
1.560000	0.000003
1.563750	0.000004
1.567500	0.000005
1.571250	0.000006
1.575000	0.000007
1.578750	0.000009
1.582500	0.000010
1.586250	0.000013
1.590000	0.000016
1.593750	0.000019
1.597500	0.000023
1.601250	0.000028
1.605000	0.000034
1.608750	0.000041
1.612500	0.000050
1.616250	0.000060
1.620000	0.000072
1.623750	0.000087
1.627500	0.000104
1.631250	0.000125
1.635000	0.000149
1.638750	0.000178
1.642500	0.000213
1.646250	0.000253
1.650000	0.000300
1.653750	0.000356
1.657500	0.000421
1.661250	0.000498
1.665000	0.000587
1.668750	0.000691
1.672500	0.000811
1.676250	0.000951
1.680000	0.001114
1.683750	0.001301
1.687500	0.001518
1.691250	0.001767
1.695000	0.002053
1.698750	0.002382
1.702500	0.002758
1.706250	0.003187
1.710000	0.003677
1.713750	0.004234
1.717500	0.004866
1.721250	0.005583
1.725000	0.006394
1.728750	0.007309
1.732500	0.008340
1.736250	0.009498
1.740000	0.010798
1.743750	0.012253
1.747500	0.013879
1.751250	0.015692
1.755000	0.017709
1.758750	0.019948
1.762500	0.022430
1.766250	0.025174
1.770000	0.028202
1.773750	0.031537
1.777500	0.035201
1.781250	0.039219
1.785000	0.043616
1.788750	0.048418
1.792500	0.053649
1.796250	0.059337
1.800000	0.065509
1.803750	0.072190
1.807500	0.079408
1.811250	0.087188
1.815000	0.095557
1.818750	0.104538
1.822500	0.114155
1.826250	0.124431
1.830000	0.135386
1.833750	0.147038
1.837500	0.159404
1.841250	0.172497
1.845000	0.186329
1.848750	0.200907
1.852500	0.216235
1.856250	0.232313
1.860000	0.249139
1.863750	0.266704
1.867500	0.284997
1.871250	0.303999
1.875000	0.323690
1.878750	0.344043
1.882500	0.365025
1.886250	0.386600
1.890000	0.408725
1.893750	0.431354
1.897500	0.454434
1.901250	0.477908
1.905000	0.501715
1.908750	0.525789
1.912500	0.550058
1.916250	0.574450
1.920000	0.598888
1.923750	0.623290
1.927500	0.647576
1.931250	0.671660
1.935000	0.695458
1.938750	0.718882
1.942500	0.741848
1.946250	0.764269
1.950000	0.786063
1.953750	0.807146
1.957500	0.827440
1.961250	0.846869
1.965000	0.865360
1.968750	0.882848
1.972500	0.899270
1.976250	0.914569
1.980000	0.928697
1.983750	0.941611
1.987500	0.953274
1.991250	0.963659
1.995000	0.972745
1.998750	0.980520
2.002500	0.986981
2.006250	0.992131
2.010000	0.995983
2.013750	0.998558
2.017500	0.999885
2.021250	1.000000
2.025000	0.998947
2.028750	0.996778
2.032500	0.993550
2.036250	0.989328
2.040000	0.984182
2.043750	0.978187
2.047500	0.971422
2.051250	0.963971
2.055000	0.955922
2.058750	0.947362
2.062500	0.938384
2.066250	0.929080
2.070000	0.919543
2.073750	0.909866
2.077500	0.900140
2.081250	0.890456
2.085000	0.880903
2.088750	0.871566
2.092500	0.862528
2.096250	0.853867
2.100000	0.845659
2.103750	0.837974
2.107500	0.830877
2.111250	0.824430
2.115000	0.818686
2.118750	0.813695
2.122500	0.809502
2.126250	0.806143
2.130000	0.803652
2.133750	0.802055
2.137500	0.801371
2.141250	0.801617
2.145000	0.802801
2.148750	0.804927
2.152500	0.807994
2.156250	0.811995
2.160000	0.816919
2.163750	0.822751
2.167500	0.829470
2.171250	0.837052
2.175000	0.845470
2.178750	0.854693
2.182500	0.864686
2.186250	0.875413
2.190000	0.886833
2.193750	0.898906
2.197500	0.911587
2.201250	0.924832
2.205000	0.938594
2.208750	0.952824
2.212500	0.967475
2.216250	0.982497
2.220000	0.997842
2.223750	1.013458
2.227500	1.029296
2.231250	1.045307
2.235000	1.061443
2.238750	1.077653
2.242500	1.093890
2.246250	1.110108
2.250000	1.126260
2.253750	1.142302
2.257500	1.158189
2.261250	1.173879
2.265000	1.189330
2.268750	1.204504
2.272500	1.219362
2.276250	1.233867
2.280000	1.247983
2.283750	1.261679
2.287500	1.274922
2.291250	1.287681
2.295000	1.299930
2.298750	1.311641
2.302500	1.322789
2.306250	1.333353
2.310000	1.343311
2.313750	1.352644
2.317500	1.361335
2.321250	1.369368
2.325000	1.376729
2.328750	1.383407
2.332500	1.389392
2.336250	1.394676
2.340000	1.399251
2.343750	1.403114
2.347500	1.406261
2.351250	1.408691
2.355000	1.410404
2.358750	1.411402
2.362500	1.411688
2.366250	1.411268
2.370000	1.410147
2.373750	1.408334
2.377500	1.405837
2.381250	1.402668
2.385000	1.398837
2.388750	1.394358
2.392500	1.389244
2.396250	1.383511
2.400000	1.377174
2.403750	1.370251
2.407500	1.362760
2.411250	1.354718
2.415000	1.346145
2.418750	1.337061
2.422500	1.327486
2.426250	1.317441
2.430000	1.306948
2.433750	1.296029
2.437500	1.284704
2.441250	1.272997
2.445000	1.260930
2.448750	1.248524
2.452500	1.235803
2.456250	1.222789
2.460000	1.209503
2.463750	1.195969
2.467500	1.182207
2.471250	1.168240
2.475000	1.154088
2.478750	1.139772
2.482500	1.125313
2.486250	1.110730
2.490000	1.096043
2.493750	1.081271
2.497500	1.066433
2.501250	1.051545
2.505000	1.036624
2.508750	1.021688
2.512500	1.006753
2.516250	0.991832
2.520000	0.976940
2.523750	0.962092
2.527500	0.947300
2.531250	0.932576
2.535000	0.917931
2.538750	0.903378
2.542500	0.888925
2.546250	0.874582
2.550000	0.860358
2.553750	0.846260
2.557500	0.832297
2.561250	0.818474
2.565000	0.804798
2.568750	0.791274
2.572500	0.777907
2.576250	0.764701
2.580000	0.751660
2.583750	0.738786
2.587500	0.726083
2.591250	0.713552
2.595000	0.701195
2.598750	0.689014
2.602500	0.677008
2.606250	0.665178
2.610000	0.653525
2.613750	0.642047
2.617500	0.630745
2.621250	0.619616
2.625000	0.608661
2.628750	0.597877
2.632500	0.587262
2.636250	0.576815
2.640000	0.566534
2.643750	0.556416
2.647500	0.546459
2.651250	0.536660
2.655000	0.527017
2.658750	0.517526
2.662500	0.508186
2.666250	0.498994
2.670000	0.489946
2.673750	0.481039
2.677500	0.472271
2.681250	0.463639
2.685000	0.455140
2.688750	0.446771
2.692500	0.438530
2.696250	0.430413
2.700000	0.422417
2.703750	0.414541
2.707500	0.406782
2.711250	0.399136
2.715000	0.391602
2.718750	0.384177
2.722500	0.376860
2.726250	0.369647
2.730000	0.362536
2.733750	0.355527
2.737500	0.348615
2.741250	0.341801
2.745000	0.335082
2.748750	0.328456
2.752500	0.321921
2.756250	0.315477
2.760000	0.309122
2.763750	0.302854
2.767500	0.296672
2.771250	0.290575
2.775000	0.284562
2.778750	0.278632
2.782500	0.272784
2.786250	0.267016
2.790000	0.261329
2.793750	0.255720
2.797500	0.250190
2.801250	0.244738
2.805000	0.239363
2.808750	0.234064
2.812500	0.228842
2.816250	0.223694
2.820000	0.218622
2.823750	0.213624
2.827500	0.208700
2.831250	0.203849
2.835000	0.199072
2.838750	0.194367
2.842500	0.189735
2.846250	0.185175
2.850000	0.180686
2.853750	0.176270
2.857500	0.171924
2.861250	0.167649
2.865000	0.163444
2.868750	0.159310
2.872500	0.155245
2.876250	0.151250
2.880000	0.147325
2.883750	0.143468
2.887500	0.139679
2.891250	0.135959
2.895000	0.132307
2.898750	0.128722
2.902500	0.125205
2.906250	0.121754
2.910000	0.118369
2.913750	0.115051
2.917500	0.111798
2.921250	0.108610
2.925000	0.105486
2.928750	0.102427
2.932500	0.099431
2.936250	0.096498
2.940000	0.093628
2.943750	0.090819
2.947500	0.088072
2.951250	0.085387
2.955000	0.082761
2.958750	0.080195
2.962500	0.077688
2.966250	0.075239
2.970000	0.072848
2.973750	0.070515
2.977500	0.068237
2.981250	0.066016
2.985000	0.063849
2.988750	0.061737
2.992500	0.059678
2.996250	0.057672
3.000000	0.055718
3.003750	0.053816
3.007500	0.051963
3.011250	0.050161
3.015000	0.048408
3.018750	0.046703
3.022500	0.045045
3.026250	0.043434
3.030000	0.041868
3.033750	0.040348
3.037500	0.038871
3.041250	0.037438
3.045000	0.036048
3.048750	0.034699
3.052500	0.033391
3.056250	0.032122
3.060000	0.030894
3.063750	0.029703
3.067500	0.028550
3.071250	0.027434
3.075000	0.026354
3.078750	0.025308
3.082500	0.024298
3.086250	0.023320
3.090000	0.022375
3.093750	0.021463
3.097500	0.020581
